Theta (deg)	Intensity	Phi_A (deg)	Micrometer (mm)
41.7308	1.0473	4.9679	13.0000
42.0940	1.0499	4.4154	12.5000
42.4571	1.0505	3.8631	12.0000
42.8203	1.0446	3.3111	11.5000
43.1834	1.0339	2.7592	11.0000
43.5466	1.0121	2.2073	10.5000
43.9098	0.9686	1.6556	10.0000
44.2732	0.9139	1.1038	9.5000
44.6365	0.8511	0.5520	9.0000
45.0000	0.7702	0.0000	8.5000
45.3636	0.6516	-0.5521	8.0000
45.7273	0.5242	-1.1044	7.5000
46.0911	0.3916	-1.6570	7.0000
46.4551	0.2758	-2.2099	6.5000
46.8192	0.2009	-2.7632	6.0000
47.1836	0.1711	-3.3169	5.5000
47.5481	0.1810	-3.8711	5.0000
47.9128	0.2160	-4.4257	4.5000
48.2778	0.2642	-4.9810	4.0000
48.6430	0.3126	-5.5369	3.5000
49.0084	0.3635	-6.0935	3.0000
