Theta (deg)	Intensity	Phi_A (deg)	Micrometer (mm)
41.7308	1.0713	4.9679	13.0000
42.4571	1.0825	3.8631	12.0000
43.1834	1.0683	2.7592	11.0000
43.9098	1.0377	1.6556	10.0000
44.6365	0.9446	0.5520	9.0000
45.0000	0.8206	0.0000	8.5000
45.1818	0.7331	-0.2760	8.2500
45.3636	0.6226	-0.5521	8.0000
45.5454	0.4891	-0.8282	7.7500
45.7273	0.3495	-1.1044	7.5000
45.9092	0.2187	-1.3807	7.2500
46.0911	0.1272	-1.6570	7.0000
46.2731	0.0732	-1.9334	6.7500
46.4551	0.0664	-2.2099	6.5000
46.6371	0.0966	-2.4865	6.2500
46.8192	0.1480	-2.7632	6.0000
47.0014	0.2185	-3.0400	5.7500
47.1836	0.2827	-3.3169	5.5000
47.5481	0.4009	-3.8711	5.0000
47.9128	0.4851	-4.4257	4.5000
48.2778	0.5553	-4.9810	4.0000
48.6430	0.5909	-5.5369	3.5000
49.0084	0.6150	-6.0935	3.0000
