Theta (deg)	Intensity	Phi_A (deg)	Micrometer (mm)
41.7222	0.9985	4.9679	13.0000
42.0863	0.9894	4.4154	12.5000
42.4504	0.9959	3.8631	12.0000
42.8145	0.9802	3.3111	11.5000
43.1786	0.9659	2.7592	11.0000
43.5428	0.8956	2.2073	10.5000
43.7249	0.8319	1.9315	10.2500
43.9070	0.6969	1.6556	10.0000
43.9798	0.5940	1.5452	9.9000
44.0891	0.4621	1.3797	9.7500
44.1619	0.3219	1.2693	9.6500
44.2712	0.1648	1.1038	9.5000
44.3805	0.0486	0.9382	9.3500
44.4534	0.0409	0.8279	9.2500
44.5263	0.0738	0.7175	9.1500
44.6356	0.1518	0.5520	9.0000
44.8178	0.3380	0.2760	8.7500
45.0000	0.4804	0.0000	8.5000
45.1823	0.5830	-0.2760	8.2500
45.3645	0.6566	-0.5521	8.0000
45.5468	0.7041	-0.8282	7.7500
45.7292	0.7392	-1.1044	7.5000
45.9116	0.7664	-1.3807	7.2500
46.0940	0.7930	-1.6570	7.0000
46.4589	0.8267	-2.2099	6.5000
46.8240	0.8509	-2.7632	6.0000
47.1893	0.8678	-3.3169	5.5000
47.5548	0.8845	-3.8711	5.0000
47.9205	0.8899	-4.4257	4.5000
48.2864	0.8996	-4.9810	4.0000
48.6526	0.8986	-5.5369	3.5000
49.0190	0.9094	-6.0935	3.0000
